File: examples/output/analysis/Standard XAFS spectra of oxides/Cu2O.nor
# XDI/1.0 Athena/0.9.26
# Element.edge:                  K
# Element.symbol:                Cu
# Column.1:                      energy eV
# Column.2:                      norm
# Column.3:                      nbkg
# Column.4:                      flat
# Column.5:                      fbkg
# Column.6:                      nder
# Column.7:                      nsec
# Athena.e0:                     8978.207
# Athena.eshift:                 0
# Athena.rbkg:                   1.0
# Athena.importance:             1
# Athena.standard:               None
# Athena.bkg_kweight:            1
# Athena.edge_step:              1.11012
# Athena.fixed_step:             no
# Athena.pre_edge_range:         -150 -75
# Athena.pre_edge_line:          6.015441 - 0.000662077 * E
# Athena.normalization_range:    150 692.0118
# Athena.post_edge_polynomial:   28.6594 - 0.00505437 * E + 2.22076e-07 * E^2 + 0 * E^3
# Athena.spline_range_energy:    0.952 792.015
# Athena.clamps:                 0 24
# Athena.spline_range_k:         0.500 14.418
# Athena.kweight:                2
# Athena.window:                 kaiser-bessel
# Athena.phase_correction:       no
# Athena.k_range:                2 14.418
# Athena.dk:                     0
# Athena.r_range:                1 3
# Athena.dr:                     0
# Athena.window:                 kaiser-bessel
# Athena.plot_multiplier:        1
# Athena.y_offset:               0
# ///
#------------------------
#   e         norm       nbkg       flat       fbkg       nder       nsec
  8770.2      -0.000160454  -0.000160454  -0.000160454  -0.000160454   9.01835e-05  -2.55994e-06
  8830.21       0.000548872   0.000548872   0.000548872   0.000548872   7.34246e-05   7.13719e-07
  8890.2       6.79846e-05   6.79846e-05   6.79846e-05   6.79846e-05   2.15164e-06  -3.24972e-06
  8950.2      -0.00485596  -0.00485596  -0.00485596  -0.00485596   0.000120737  -9.28065e-07
  8953.22      -0.00510994  -0.00510994  -0.00510994  -0.00510994   0.00037333   0.00127619
  8956.21      -0.00396423  -0.00396423  -0.00396423  -0.00396423  -0.000378669   0.000297264
  8959.22      -0.00308407  -0.00308407  -0.00308407  -0.00308407   0.000115327   0.000195315
  8962.21      -0.00147233  -0.00147233  -0.00147233  -0.00147233   0.000548838   7.21219e-05
  8965.21       0.00114797   0.00114797   0.00114797   0.00114797   0.00100747   0.000237912
  8968.21       0.00523637   0.00523637   0.00523637   0.00523637   0.00166425   0.000461854
  8971.2       0.0132314   0.0132314   0.0132314   0.0132314   0.00349433   0.000869674
  8974.2       0.0343992   0.0343992   0.0343992   0.0343992   0.0116296   0.00328174
  8977.21       0.189753       0.189753       0.189753       0.189753       0.183868       0.10814
  8980.21       0.541853       0.490978       0.542582       0.491707      -0.110679      -0.0242299
  8983.22       0.511254       0.676742       0.513075       0.678563       0.0647238   0.0301115
  8986.2       0.693294       0.806802       0.696194       0.809702       0.0637554   0.00648369
  8989.21       0.931476       0.892722       0.935462       0.896707       0.0952162   0.00639721
  8992.22        1.11028       0.942231        1.11535       0.9473       0.0194675  -0.00999149
  8995.21        1.07231       0.964461        1.07845       0.9706      -0.0420747   0.00312622
  8998.2       0.949686       0.969039       0.956891       0.976245      -0.0314058   0.0166189
  9001.22       0.91358       0.964977       0.921861       0.973257       0.00639134   0.0108511
  9004.21       0.946315       0.960025       0.955657       0.969367       0.0125409   0.0028546
  9007.2       0.987661       0.955692       0.998061       0.966092       0.0125622  -0.00355845
  9010.2       0.994768       0.951945        1.00622       0.963401      -0.00333865  -0.000626141
  9022.21       0.878444       0.942152       0.894094       0.957802      -0.00449593   0.00126562
  9034.22       0.908026       0.939054       0.927814       0.958842       0.00797573  -6.9043e-05
  9046.21       0.980105       0.94043        1.00397       0.964291      -0.00258333  -0.00155637
  9058.21       0.958241       0.944063       0.986117       0.97194      -0.00132223  -7.32898e-07
  9070.2       0.971375       0.947752        1.00321       0.979589       0.00202968  -0.000204677
  9082.21       0.980762       0.95003        1.0165       0.985771      -0.000979351  -0.000545615
  9094.21       0.935657       0.950911       0.975246       0.9905      -0.0043334   0.000251145
  9106.22       0.914675       0.950584       0.958055       0.993964       0.00133183   0.0003951
  9118.21       0.939009       0.949242       0.986114       0.996348       0.000842642  -0.000219572
  9130.2       0.944662       0.947074       0.995437       0.997849       0.000384834   7.47049e-05
  9142.22       0.95414       0.944262        1.00854       0.998658      -0.000182294  -0.000288402
  9154.21       0.941017       0.941007       0.998969       0.99896      -0.00115508   8.2391e-05
  9166.21       0.935548       0.937494       0.997       0.998946       0.000178838   2.0541e-05
  9178.21       0.937114       0.933912        1.00201       0.998807       0.000119583   3.3196e-07
  9190.22       0.936318       0.930413        1.0046       0.998693      -0.000417687  -2.84056e-05
  9202.2       0.930148       0.927025        1.00175       0.998627      -0.000588083  -3.58549e-05
  9214.21       0.921169       0.923729       0.996043       0.998603      -0.000736045   2.98145e-05
  9226.22       0.915566       0.920528       0.993656       0.998617      -0.000232537   1.6862e-05
  9238.21       0.914217       0.917425       0.995457       0.998665       0.000103926   2.2334e-05
  9250.2       0.91432       0.914408       0.998654       0.998742       3.70841e-06   3.25281e-06
  9262.22       0.913604       0.911465        1.00098       0.998843      -4.75669e-05  -1.25496e-05
  9274.21       0.912205       0.908606        1.00256       0.998964      -0.000202374   2.02403e-05
  9286.21       0.908213       0.905819        1.00149       0.999099      -0.000394704  -4.98272e-06
  9298.2       0.904803       0.9031        1.00095       0.999246      -0.000222393  -1.45261e-05
  9310.2       0.901522       0.900444        1.00048       0.999397      -0.000271025   2.1913e-05
  9322.2       0.898604       0.897845        1.00031       0.99955      -0.000285093  -8.16649e-06
  9334.21       0.895708       0.895301        1.00011       0.9997      -0.000191314   2.01899e-05
  9346.21       0.893032       0.892807        1.00007       0.999842      -0.000225082  -1.07483e-05
  9358.21       0.890125       0.890362       0.999739       0.999977      -0.000209133  -8.23754e-07
  9370.22       0.886427       0.887966       0.998563        1.0001      -0.000272572   5.5225e-05
  9382.2       0.884234       0.885623       0.998828        1.00022      -0.000327523  -2.32375e-05
  9394.21       0.881479       0.883322       0.99848        1.00032      -0.000168206  -3.758e-05
  9406.21       0.879519       0.881066       0.998869        1.00042       2.41687e-07  -3.455e-05
  9418.22       0.8769       0.878856       0.998542        1.0005      -4.52946e-05   6.11999e-05
  9430.2       0.875856       0.876696       0.999726        1.00057      -8.79001e-05   4.36313e-06
  9442.21       0.87466       0.874574        1.00071        1.00062      -0.000109505  -1.0864e-06
  9454.2       0.873101       0.8725        1.00126        1.00066      -0.000163281  -1.42963e-06
  9466.21       0.870979       0.870463        1.0012        1.00069      -0.000243473  -9.59525e-06
  9478.22       0.868596       0.868468        1.00082        1.00069      -0.000182487   1.23739e-05
  9490.2       0.86664       0.866518        1.00081        1.00069      -0.000183351  -7.596e-06
  9502.21       0.864901       0.864603        1.00096        1.00066      -0.000128544  -1.70544e-06
  9514.22       0.863488       0.862727        1.00137        1.00061      -0.000107325  -1.14831e-06
  9526.2       0.862183       0.860895        1.00184        1.00055      -9.26451e-05   2.12555e-05
  9538.21       0.860665       0.859095        1.00204        1.00047      -0.00011035   1.25001e-05
  9550.22       0.859306       0.85734        1.00233        1.00037      -0.000212633   2.85261e-05
  9562.2       0.856705       0.855643        1.00133        1.00027      -0.000240306   2.5422e-05
  9574.21       0.854696       0.854006        1.00086        1.00017      -0.000186002  -1.27197e-05
  9586.21       0.850782       0.852444       0.998433        1.00009      -0.000352179   0.000107331
  9598.22       0.849043       0.850966       0.998119        1.00004      -0.00016808  -0.000129932
  9610.23       0.845695       0.849583       0.99614        1.00003      -0.000304678   7.0614e-05
  9622.2       0.845367       0.848308       0.99712        1.00006      -8.08097e-05   1.79978e-05
  9634.2       0.845291       0.847144       0.998296        1.00015      -7.39645e-06  -8.14162e-06
  9646.2       0.845912       0.846104        1.00011        1.00031       6.28294e-05  -4.68779e-05
  9658.2       0.847114       0.8452        1.00245        1.00054       0.000132063  -0.000117852
  9670.2       0.845956       0.84444        1.00237        1.00086      -6.96937e-05   3.9147e-05
  9682.22       0.84607       0.843834        1.00351        1.00128      -0.000128699  -1.7002e-05
  9694.22       0.844874       0.843394        1.00328        1.0018      -1.7738e-05   4.51983e-06
  9706.21       0.844357       0.843129        1.00367        1.00244      -2.07093e-05   6.02655e-06
  9718.19       0.844424       0.843048        1.00459        1.00321       3.64028e-05   1.15025e-05
  9730.21       0.844682       0.843163        1.00564        1.00412      -1.64329e-05  -2.7021e-06
  9742.2       0.844661       0.843482        1.00635        1.00517       7.97019e-06   3.55016e-06
  9754.21       0.844579       0.844018        1.00695        1.00639      -1.63867e-05  -9.25491e-07
  9766.22       0.844382       0.844779        1.00737        1.00777      -5.86566e-06   1.26682e-05
  9770.22       0.844432       0.845084        1.00761        1.00826      -5.21204e-06  -8.87759e-06