File: examples/output/analysis/Standard XAFS spectra of oxides/CuO.nor
# XDI/1.0 Athena/0.9.26
# Element.edge:                  K
# Element.symbol:                Cu
# Column.1:                      energy eV
# Column.2:                      norm
# Column.3:                      nbkg
# Column.4:                      flat
# Column.5:                      fbkg
# Column.6:                      nder
# Column.7:                      nsec
# Athena.e0:                     8981.251
# Athena.eshift:                 0
# Athena.rbkg:                   1.0
# Athena.importance:             1
# Athena.standard:               None
# Athena.bkg_kweight:            1
# Athena.edge_step:              0.6384147
# Athena.fixed_step:             no
# Athena.pre_edge_range:         -150 -75
# Athena.pre_edge_line:          6.214196 - 0.000693142 * E
# Athena.normalization_range:    150 689.508
# Athena.post_edge_polynomial:   19.4115 - 0.003541 * E + 1.61393e-07 * E^2 + 0 * E^3
# Athena.spline_range_energy:    0.952 789.490
# Athena.clamps:                 0 24
# Athena.spline_range_k:         0.500 14.395
# Athena.kweight:                2
# Athena.window:                 kaiser-bessel
# Athena.phase_correction:       no
# Athena.k_range:                2 14.395
# Athena.dk:                     0
# Athena.r_range:                1 3
# Athena.dr:                     0
# Athena.window:                 kaiser-bessel
# Athena.plot_multiplier:        1
# Athena.y_offset:               0
# ///
#------------------------
#   e         norm       nbkg       flat       fbkg       nder       nsec
  8770.74       0.0117273   0.0117273   0.0117273   0.0117273  -7.20182e-05  -1.76914e-06
  8820.76       0.00292303   0.00292303   0.00292303   0.00292303  -0.00020119   1.63617e-05
  8870.75      -0.00060579  -0.00060579  -0.00060579  -0.00060579   6.38515e-05  -8.48856e-07
  8920.75       0.00210157   0.00210157   0.00210157   0.00210157   0.000123938   6.55654e-06
  8951.74       0.0112318   0.0112318   0.0112318   0.0112318   0.000569256  -0.000155893
  8954.25       0.0134072   0.0134072   0.0134072   0.0134072   0.00062571  -0.000219096
  8956.75       0.0153362   0.0153362   0.0153362   0.0153362   0.00094343   9.29584e-05
  8959.24       0.0175137   0.0175137   0.0175137   0.0175137   0.0011394  -0.000253563
  8961.76       0.0201061   0.0201061   0.0201061   0.0201061   0.00121797  -0.000201674
  8964.25       0.0234131   0.0234131   0.0234131   0.0234131   0.00147768  -0.000210072
  8966.75       0.0277397   0.0277397   0.0277397   0.0277397   0.00211653   0.000682985
  8969.24       0.0338704   0.0338704   0.0338704   0.0338704   0.00289834   0.00101673
  8971.74       0.0433706   0.0433706   0.0433706   0.0433706   0.00457275  -7.71834e-05
  8974.24       0.0640279   0.0640279   0.0640279   0.0640279   0.0164308   0.00455738
  8976.75       0.094757   0.094757   0.094757   0.094757   0.0147208   0.0199685
  8979.25       0.174952       0.174952       0.174952       0.174952       0.0484648   0.0520065
  8981.75       0.494257       0.494257       0.494217       0.494217       0.119773      -0.062889
  8984.26       0.621149       0.820782       0.620906       0.820538       0.00118319   0.0104608
  8986.74       0.733676       0.896379       0.733229       0.895932       0.0823328   0.0184305
  8989.25       0.973481       0.952361       0.972824       0.951704       0.0746467  -0.0332369
  8991.76        1.0889       0.990752        1.08803       0.989882       0.0352027  -0.00424989
  8994.24        1.17532        1.01435        1.17424        1.01326       0.035754  -0.0159908
  8996.75        1.17979        1.02668        1.17848        1.02538      -0.0167453  -0.00487445
  8999.24        1.11065        1.03042        1.10913        1.0289      -0.034558   0.00209493
  9004.75       0.993524        1.02355       0.991501        1.02152      -0.00715976   0.00458443
  9014.75       0.988458        1.00923       0.98549        1.00626      -0.00532481  -0.00155387
  9024.74       0.912213        1.00081       0.908249       0.99685      -0.000381981   0.00213483
  9034.76       0.985216       0.997121       0.980204       0.992109       0.00954432  -0.000173922
  9044.75        1.05099       0.996998        1.04489       0.99089       0.00390684  -0.000595822
  9054.75        1.04303       0.999269        1.03578       0.992012      -0.003242   0.000136714
  9064.75        1.01858        1.00277        1.01013       0.994311      -0.00171852   0.00019368
  9074.75        1.0046        1.00634       0.994892       0.996637      -0.00104886   0.000225674
  9084.74        1.00147        1.00941       0.990469       0.99841      -0.000459369   5.43483e-05
  9094.75        1.00014        1.01202       0.987785       0.999667      -3.16479e-05  -3.98292e-05
  9104.76       0.998445        1.01422       0.984691        1.00047      -0.00022835   0.000125964
  9114.76        1.0034        1.01609       0.988195        1.00088      -0.000302939   1.7569e-05
  9124.75        1.01393        1.01768       0.997224        1.00098       0.00296384   5.7273e-05
  9134.74        1.02953        1.01907        1.01127        1.00081       0.000474668  -0.000180489
  9144.75        1.02953        1.02032        1.00967        1.00046      -0.000396112   1.43303e-05
  9154.75        1.0299        1.02149        1.00839       0.999975      -0.000575025  -0.000351841
  9164.75        1.02108        1.02265       0.997858       0.999434      -0.00063882  -0.000263787
  9174.74        1.01293        1.02387       0.987964       0.998898      -7.88926e-05   9.48958e-05
  9184.75        1.02117        1.02521       0.994389       0.998431       0.0012894  -9.6543e-05
  9194.76        1.02548        1.0267       0.99684       0.998064      -6.64735e-05  -0.000166939
  9204.76        1.02451        1.02833       0.993966       0.99779       0.000254571  -2.65623e-05
  9214.75        1.02588        1.0301       0.99338       0.997603       0.00118465   0.00017506
  9224.76        1.03609        1.032        1.00159       0.997494       0.000608605  -5.23113e-05
  9234.74        1.03825        1.03402        1.00169       0.997457       2.66608e-05  -0.000138266
  9244.74        1.0389        1.03615        1.00023       0.997484       0.000469753   4.04867e-05
  9254.76        1.04497        1.0384        1.00414       0.997568       0.00049928  -7.21474e-05
  9264.74        1.0473        1.04074        1.00426       0.997702       5.4688e-05  -2.9407e-05
  9274.75        1.04538        1.04318        1.00008       0.997877      -0.00022161   6.76815e-05
  9284.75        1.04659        1.0457       0.998977       0.998088       0.000315175  -2.53213e-05
  9294.74        1.04931        1.0483       0.999343       0.998326       0.000216465   1.53724e-05
  9304.75        1.05187        1.05097       0.999486       0.998585      -7.70253e-06  -6.98975e-05
  9314.76        1.05134        1.0537       0.996495       0.998857      -0.00014487   3.74819e-05
  9324.76        1.05378        1.05649       0.996422       0.999133       0.000436842   1.73139e-05
  9334.75        1.05835        1.05933       0.998433       0.999408       0.000290099  -3.39959e-05
  9344.76        1.06058        1.06221       0.998041       0.999676       0.000113919  -6.98646e-05
  9354.76        1.06253        1.06514       0.997326       0.999933       0.000162316   6.93067e-06
  9364.75        1.0672        1.06809       0.999286        1.00018       0.00059694  -3.23464e-05
  9374.74        1.07199        1.07109        1.00131        1.00041       0.000267243  -3.76661e-05
  9384.75        1.07683        1.07412        1.00333        1.00063       0.00022537  -4.25291e-05
  9394.75        1.08009        1.07719        1.00373        1.00083       0.000346503  -6.96553e-05
  9404.74        1.08179        1.08029        1.00251        1.00101       0.000406018   3.96329e-05
  9414.75        1.08488        1.08342        1.00263        1.00117      -2.0567e-05  -1.18119e-05
  9424.75        1.08616        1.08658        1.00089        1.00131      -2.51581e-05   6.98769e-05
  9434.74        1.08756        1.08976       0.999225        1.00143       0.000209389   2.56296e-05
  9444.76        1.09144        1.09298       0.999985        1.00152       0.00014059  -7.40817e-05
  9454.74        1.09396        1.09621       0.999341        1.00158       0.000308405  -1.94607e-05
  9464.76        1.09782        1.09947       0.999966        1.00162       0.000360406  -1.18708e-05
  9474.75        1.10307        1.10275        1.00196        1.00163       0.000465083  -8.46835e-05
  9484.76        1.10608        1.10605        1.00163        1.0016       0.000327438  -1.18252e-05
  9494.76        1.1089        1.10936        1.00108        1.00154       0.000267253   2.91497e-05
  9504.75        1.11146        1.11268        1.00022        1.00145       0.0002286   2.95109e-05
  9514.76        1.11569        1.11603        1.00098        1.00132       0.000335451  -9.68115e-05
  9524.76        1.117        1.11939       0.998765        1.00115       0.000386159   1.83043e-05
  9534.76        1.12065        1.12275       0.998841        1.00094       0.000530873   1.34588e-05
  9544.74        1.12573        1.12612        1.0003        1.00069       0.000480365  -7.35936e-05
  9554.74        1.13069        1.12952        1.00158        1.00042       0.000285045  -8.49884e-05
  9564.76        1.13437        1.13296        1.00153        1.00012       0.000463484   2.63005e-06
  9574.75        1.13802        1.13642        1.00141       0.999812       0.000414348   6.51797e-05
  9584.75        1.143        1.13994        1.00256       0.999499       0.000477111  -4.57126e-05
  9594.75        1.14603        1.14351        1.00171       0.999191       0.000336373   1.8891e-05
  9604.76        1.14912        1.14715        1.00087       0.998896       0.000345938   3.81253e-05
  9614.76        1.15269        1.15085        1.00046       0.998623       0.000526123   2.34227e-05
  9624.76        1.15579        1.15464       0.999528       0.99838       0.00018306   6.86859e-05
  9634.74        1.15928        1.15851       0.998945       0.998177       0.00022611   5.75845e-05
  9644.74        1.16216        1.16248       0.997699       0.99802       0.000406584   6.78725e-05
  9654.74        1.1661        1.16656       0.997458       0.99792       0.000278988  -1.56562e-06
  9664.75        1.16992        1.17077       0.997043       0.997885       0.00033957  -2.54704e-05
  9674.75        1.17251        1.17509       0.99535       0.997922       0.000469166   5.87148e-05
  9684.74        1.17734        1.17953       0.995844       0.998041       0.000156869  -4.81044e-05
  9694.76        1.18077        1.18413       0.994885       0.998251       0.000292598  -1.62716e-05
  9704.76        1.18497        1.18888       0.994654       0.99856       0.000690342  -3.08491e-05
  9716.74        1.19274        1.19477       0.997039       0.999072       0.0012813   0.000165069
  9726.75        1.20239        1.19988        1.00214       0.999629       0.000665755  -5.64535e-06
  9736.76        1.20985        1.20516        1.005        1.00031       0.000422556  -0.000154634
  9746.75        1.21397        1.21062        1.00448        1.00113       0.000229505  -7.43809e-05
  9756.76        1.21823        1.21628        1.00404        1.00209       0.000491471   7.42911e-05
  9766.76        1.22336        1.22214        1.00442        1.0032       0.000535337   7.79172e-06
  9770.76        1.22481        1.22454        1.00396        1.00369      -0.00016286  -0.000261775